Frequency (Hz)	Level (dB)
23.437500	-102.667511
46.875000	-101.938736
70.312500	-100.817787
93.750000	-99.388016
117.187500	-97.714859
140.625000	-95.831871
164.062500	-93.747520
187.500000	-91.450996
210.937500	-88.914116
234.375000	-86.091614
257.812500	-82.916534
281.250000	-79.290283
304.687500	-75.062508
328.125000	-69.988655
351.562500	-63.627739
375.000000	-55.034485
398.437500	-41.273659
421.875000	-19.541601
445.312500	-16.341957
468.750000	-25.522577
492.187500	-48.604980
515.625000	-59.358780
539.062500	-66.778130
562.500000	-72.496010
585.937500	-77.162598
609.375000	-81.110291
632.812500	-84.533585
656.250000	-87.556839
679.687500	-90.264008
703.125000	-92.714676
726.562500	-94.952103
750.000000	-97.007599
773.437500	-98.903572
796.875000	-100.652603
820.312500	-102.259911
843.750000	-103.710335
867.187500	-104.976753
890.625000	-105.998207
914.062500	-106.684525
937.500000	-106.927902
960.937500	-106.643761
984.375000	-105.816940
1007.812500	-104.503693
1031.250000	-102.790703
1054.687500	-100.747520
1078.125000	-98.409172
1101.562500	-95.773705
1125.000000	-92.805840
1148.437500	-89.436089
1171.875000	-85.550934
1195.312500	-80.967270
1218.750000	-75.371727
1242.187500	-68.158905
1265.625000	-57.855930
1289.062500	-37.527176
1312.500000	-26.873808
1335.937500	-28.967445
1359.375000	-47.412708
1382.812500	-62.076916
1406.250000	-70.971779
1429.687500	-77.491951
1453.125000	-82.666313
1476.562500	-86.964287
1500.000000	-90.643196
1523.437500	-93.860397
1546.875000	-96.719330
1570.312500	-99.292015
1593.750000	-101.629745
1617.187500	-103.771362
1640.625000	-105.745041
1664.062500	-107.572495
1687.500000	-109.267799
1710.937500	-110.839806
1734.375000	-112.286087
1757.812500	-113.594131
1781.250000	-114.729546
1804.687500	-115.630898
1828.125000	-116.203140
1851.562500	-116.328842
1875.000000	-115.908897
1898.437500	-114.914673
1921.875000	-113.394386
1945.312500	-111.428696
1968.750000	-109.080284
1992.187500	-106.370689
2015.625000	-103.274292
2039.062500	-99.717545
2062.500000	-95.567177
2085.937500	-90.595856
2109.375000	-84.390892
2132.812500	-76.082306
2156.250000	-63.106400
2179.687500	-36.491291
2203.125000	-32.159344
2226.562500	-39.979218
2250.000000	-67.429321
2273.437500	-78.683907
2296.875000	-86.325951
2320.312500	-92.174675
2343.750000	-96.928986
2367.187500	-100.939980
2390.625000	-104.410271
2414.062500	-107.467194
2437.500000	-110.194649
2460.937500	-112.647148
2484.375000	-114.858261
2507.812500	-116.837227
2531.250000	-118.572884
2554.687500	-120.019989
2578.125000	-121.107765
2601.562500	-121.748779
2625.000000	-121.880089
2648.437500	-121.504822
2671.875000	-120.689880
2695.312500	-119.527351
2718.750000	-118.101952
2742.187500	-116.467545
2765.625000	-114.649681
2789.062500	-112.654213
2812.500000	-110.470558
2835.937500	-108.074158
2859.375000	-105.427223
2882.812500	-102.475662
2906.250000	-99.141335
2929.687500	-95.309601
2953.125000	-90.802795
2976.562500	-85.322739
3000.000000	-78.303734
3023.437500	-68.410927
3046.875000	-50.068111
3070.312500	-37.791100
3093.750000	-38.795414
3117.187500	-54.713093
3140.625000	-70.439285
3164.062500	-79.658043
3187.500000	-86.344582
3210.937500	-91.622284
3234.375000	-95.991531
3257.812500	-99.723076
3281.250000	-102.981140
3304.687500	-105.873489
3328.125000	-108.474045
3351.562500	-110.836403
3375.000000	-113.000999
3398.437500	-114.997948
3421.875000	-116.851135
3445.312500	-118.578949
3468.750000	-120.196663
3492.187500	-121.715370
3515.625000	-123.142204
3539.062500	-124.480850
3562.500000	-125.728447
3585.937500	-126.871643
3609.375000	-127.881615
3632.812500	-128.693604
3656.250000	-129.202454
3679.687500	-129.243607
3703.125000	-128.643539
3726.562500	-127.302162
3750.000000	-125.225883
3773.437500	-122.495567
3796.875000	-119.155190
3820.312500	-115.158371
3843.750000	-110.332581
3867.187500	-104.311279
3890.625000	-96.299683
3914.062500	-84.042473
3937.500000	-46.765560
3960.937500	-41.263988
3984.375000	-47.807686
4007.812500	-85.528008
4031.250000	-97.369278
4054.687500	-105.278725
4078.125000	-111.293800
4101.562500	-116.165405
4125.000000	-120.259041
4148.437500	-123.776428
4171.875000	-126.828392
4195.312500	-129.462158
4218.750000	-131.667557
4242.187500	-133.388290
4265.625000	-134.538406
4289.062500	-135.071716
4312.500000	-135.030228
4335.937500	-134.521500
4359.375000	-133.677536
4382.812500	-132.599289
4406.250000	-131.353180
4429.687500	-129.972748
4453.125000	-128.476700
4476.562500	-126.865753
4500.000000	-125.136497
4523.437500	-123.275795
4546.875000	-121.266922
4570.312500	-119.086624
4593.750000	-116.706291
4617.187500	-114.082962
4640.625000	-111.162933
4664.062500	-107.869690
4687.500000	-104.092484
4710.937500	-99.660690
4734.375000	-94.291435
4757.812500	-87.455551
4781.250000	-77.938461
4804.687500	-61.132607
4828.125000	-47.022671
4851.562500	-46.945492
4875.000000	-60.777748
4898.437500	-77.782524
4921.875000	-87.351334
4945.312500	-94.212799
4968.750000	-99.597542
4992.187500	-104.039955
5015.625000	-107.824928
5039.062500	-111.124001
5062.500000	-114.049034
5085.937500	-116.676414
5109.375000	-119.061188
5132.812500	-121.245331
5156.250000	-123.259224
5179.687500	-125.125130
5203.125000	-126.868393
5226.562500	-128.499237
5250.000000	-130.027634
5273.437500	-131.463303
5296.875000	-132.808411
5320.312500	-134.055618
5343.750000	-135.194977
5367.187500	-136.175720
5390.625000	-136.938400
5414.062500	-137.335388
5437.500000	-137.200760
5460.937500	-136.379486
5484.375000	-134.806870
5507.812500	-132.542496
5531.250000	-129.679306
5554.687500	-126.252632
5578.125000	-122.212029
5601.562500	-117.374565
5625.000000	-111.394539
5648.437500	-103.532860
5671.875000	-91.787376
5695.312500	-56.554699
5718.750000	-49.833046
5742.187500	-55.164768
5765.625000	-89.929985
5789.062500	-102.292587
5812.500000	-110.354034
5835.937500	-116.413094
5859.375000	-121.282639
5882.812500	-125.353470
5906.250000	-128.846008
5929.687500	-131.892380
5953.125000	-134.561249
5976.562500	-136.893250
6000.000000	-138.882843
6023.437500	-140.488983
6046.875000	-141.641571
6070.312500	-142.261597
6093.750000	-142.353989
6117.187500	-141.964142
6140.625000	-141.190643
6164.062500	-140.133789
6187.500000	-138.870438
6210.937500	-137.440994
6234.375000	-135.878296
6257.812500	-134.179642
6281.250000	-132.343872
6304.687500	-130.356064
6328.125000	-128.199570
6351.562500	-125.841110
6375.000000	-123.245300
6398.437500	-120.358505
6421.875000	-117.106956
6445.312500	-113.382164
6468.750000	-109.023193
6492.187500	-103.760635
6515.625000	-97.098282
6539.062500	-87.927284
6562.500000	-72.364418
6585.937500	-56.117668
6609.375000	-54.958412
6632.812500	-66.992302
6656.250000	-85.586395
6679.687500	-95.535553
6703.125000	-102.581650
6726.562500	-108.077866
6750.000000	-112.595680
6773.437500	-116.435371
6796.875000	-119.776596
6820.312500	-122.735413
6843.750000	-125.388237
6867.187500	-127.796173
6890.625000	-129.997253
6914.062500	-132.022720
6937.500000	-133.899460
6960.937500	-135.634552
6984.375000	-137.243408
7007.812500	-138.731384
7031.250000	-140.065002
7054.687500	-141.219910
7078.125000	-142.142715
7101.562500	-142.721954
7125.000000	-142.824188
7148.437500	-142.382889
7171.875000	-141.356552
7195.312500	-139.831161
7218.750000	-137.873642
7242.187500	-135.555786
7265.625000	-132.894882
7289.062500	-129.871490
7312.500000	-126.420578
7335.937500	-122.423660
7359.375000	-117.683258
7382.812500	-111.854370
7406.250000	-104.245796
7429.687500	-93.066315
7453.125000	-66.410164
7476.562500	-58.401627
7500.000000	-62.569805
7523.437500	-88.319496
7546.875000	-101.401665
7570.312500	-109.750267
7593.750000	-115.977882
7617.187500	-120.966232
7640.625000	-125.131744
7664.062500	-128.712570
7687.500000	-131.848114
7710.937500	-134.638779
7734.375000	-137.142975
7757.812500	-139.404160
7781.250000	-141.452026
7804.687500	-143.286865
7828.125000	-144.893082
7851.562500	-146.231979
7875.000000	-147.215195
7898.437500	-147.782898
7921.875000	-147.854996
7945.312500	-147.428680
7968.750000	-146.549377
7992.187500	-145.320221
8015.625000	-143.821487
8039.062500	-142.101669
8062.500000	-140.186127
8085.937500	-138.080078
8109.375000	-135.760986
8132.812500	-133.197906
8156.250000	-130.345337
8179.687500	-127.136627
8203.125000	-123.464249
8226.562500	-119.176758
8250.000000	-114.017159
8273.437500	-107.519966
8296.875000	-98.669533
8320.312500	-84.143005
8343.750000	-65.285606
8367.187500	-63.035194
8390.625000	-73.470001
8414.062500	-94.134125
8437.500000	-104.498795
8460.937500	-111.740494
8484.375000	-117.353600
8507.812500	-121.949425
8531.250000	-125.845421
8554.687500	-129.230286
8578.125000	-132.223206
8601.562500	-134.901535
8625.000000	-137.331467
8648.437500	-139.545319
8671.875000	-141.581573
8695.312500	-143.450195
8718.750000	-145.155182
8742.187500	-146.712372
8765.625000	-148.073151
8789.062500	-149.203827
8812.500000	-150.007278
8835.937500	-150.376221
8859.375000	-150.250122
8882.812500	-149.584396
8906.250000	-148.441177
8929.687500	-146.911423
8953.125000	-145.038971
8976.562500	-142.915085
9000.000000	-140.517914
9023.437500	-137.843307
9046.875000	-134.840317
9070.312500	-131.421753
9093.750000	-127.485275
9117.187500	-122.831711
9140.625000	-117.131821
9164.062500	-109.742836
9187.500000	-99.056175
9210.937500	-76.435516
9234.375000	-67.052124
9257.812500	-70.092392
9281.250000	-91.287209
9304.687500	-105.168793
9328.125000	-113.804619
9351.562500	-120.187492
9375.000000	-125.275635
9398.437500	-129.514252
9421.875000	-133.145828
9445.312500	-136.335037
9468.750000	-139.161926
9492.187500	-141.709015
9515.625000	-144.020905
9539.062500	-146.131943
9562.500000	-148.071335
9585.937500	-149.852585
9609.375000	-151.445099
9632.812500	-152.889908
9656.250000	-154.074631
9679.687500	-154.964600
9703.125000	-155.519928
9726.562500	-155.532410
9750.000000	-155.077759
9773.437500	-154.091232
9796.875000	-152.678589
9820.312500	-151.038910
9843.750000	-149.002975
9867.187500	-146.753708
9890.625000	-144.261658
9914.062500	-141.461258
9937.500000	-138.290543
9960.937500	-134.673676
9984.375000	-130.458099
10007.812500	-125.398239
10031.250000	-119.059456
10054.687500	-110.507095
10078.125000	-96.865051
10101.562500	-74.565933
10125.000000	-71.206390
10148.437500	-80.186485
10171.875000	-103.760712
10195.312500	-114.582573
10218.750000	-122.032928
10242.187500	-127.767601
10265.625000	-132.448242
10289.062500	-136.402313
10312.500000	-139.831894
10335.937500	-142.855347
10359.375000	-145.566772
10382.812500	-148.028259
10406.250000	-150.235474
10429.687500	-152.272568
10453.125000	-154.088089
10476.562500	-155.737228
10500.000000	-157.111176
10523.437500	-158.233353
10546.875000	-159.025085
10570.312500	-159.125809
10593.750000	-158.870590
10617.187500	-158.088928
10640.625000	-156.918701
10664.062500	-155.390808
10687.500000	-153.673141
10710.937500	-151.740234
10734.375000	-149.560379
10757.812500	-147.161972
10781.250000	-144.485199
10804.687500	-141.517532
10828.125000	-138.144424
10851.562500	-134.263062
10875.000000	-129.688004
10898.437500	-124.109558
10921.875000	-116.924919
10945.312500	-106.682961
10968.750000	-86.674583
10992.187500	-75.799591
11015.625000	-77.736816
11039.062500	-95.784767
11062.500000	-110.589859
11085.937500	-119.529297
11109.375000	-126.073944
11132.812500	-131.262878
11156.250000	-135.570343
11179.687500	-139.267822
11203.125000	-142.479980
11226.562500	-145.343430
11250.000000	-147.910019
11273.437500	-150.276596
11296.875000	-152.386581
11320.312500	-154.365952
11343.750000	-156.211136
11367.187500	-157.913300
11390.625000	-159.478745
11414.062500	-160.886505
11437.500000	-162.228668
11460.937500	-163.346375
11484.375000	-164.236191
11507.812500	-164.587936
11531.250000	-164.475067
11554.687500	-163.158615
11578.125000	-162.867661
11601.562500	-161.621552
11625.000000	-159.673615
11648.437500	-157.297623
11671.875000	-154.536469
11695.312500	-151.548325
11718.750000	-147.943726
11742.187500	-143.816803
11765.625000	-138.859680
11789.062500	-132.679108
11812.500000	-124.410370
11835.937500	-111.539207
11859.375000	-83.972221
11882.812500	-79.475754
11906.250000	-87.108673
11929.687500	-115.440636
11953.125000	-126.771637
11976.562500	-134.446167
12000.000000	-140.317902
12023.437500	-145.085098
12046.875000	-149.102875
12070.312500	-152.570480
12093.750000	-155.652420
12117.187500	-158.372665
12140.625000	-160.808380
12164.062500	-163.017212
12187.500000	-164.892593
12210.937500	-166.595963
12234.375000	-167.877365
12257.812500	-168.754898
12281.250000	-169.083511
12304.687500	-168.881378
12328.125000	-168.320160
12351.562500	-167.644028
12375.000000	-166.353302
12398.437500	-164.893280
12421.875000	-162.423416
12445.312500	-160.536407
12468.750000	-159.293121
12492.187500	-157.179184
12515.625000	-154.811172
12539.062500	-152.170822
12562.500000	-149.218475
12585.937500	-145.881454
12609.375000	-142.065582
12632.812500	-137.566666
12656.250000	-132.100830
12679.687500	-125.109993
12703.125000	-115.273605
12726.562500	-97.172882
12750.000000	-84.648529
12773.437500	-85.498062
12796.875000	-101.095528
12820.312500	-116.989449
12843.750000	-126.256737
12867.187500	-132.967804
12890.625000	-138.260223
12914.062500	-142.637634
12937.500000	-146.380478
12960.937500	-149.641891
12984.375000	-152.550278
13007.812500	-155.139191
13031.250000	-157.489807
13054.687500	-159.727081
13078.125000	-161.608704
13101.562500	-163.480621
13125.000000	-165.243271
13148.437500	-166.867462
13171.875000	-168.005737
13195.312500	-169.434555
13218.750000	-170.968323
13242.187500	-172.287903
13265.625000	-173.389420
13289.062500	-174.142365
13312.500000	-173.489182
13335.937500	-175.030045
13359.375000	-176.529648
13382.812500	-176.057709
13406.250000	-175.836777
13429.687500	-174.147110
13453.125000	-171.941818
13476.562500	-168.994217
13500.000000	-165.087753
13523.437500	-160.330338
13546.875000	-154.376816
13570.312500	-146.425156
13593.750000	-134.300873
13617.187500	-93.515518
13640.625000	-87.843079
13664.062500	-94.210129
13687.500000	-135.468277
13710.937500	-147.418839
13734.375000	-155.368256
13757.812500	-161.407654
13781.250000	-166.300247
13804.687500	-170.220474
13828.125000	-173.734634
13851.562500	-176.458328
13875.000000	-179.004028
13898.437500	-180.343964
13921.875000	-177.184784
13945.312500	-176.614410
13968.750000	-180.410706
13992.187500	-181.312302
14015.625000	-180.622726
14039.062500	-179.424698
14062.500000	-178.692963
14085.937500	-177.838669
14109.375000	-176.160385
14132.812500	-174.305344
14156.250000	-173.311966
14179.687500	-170.854416
14203.125000	-169.547577
14226.562500	-167.841339
14250.000000	-165.612686
14273.437500	-163.196945
14296.875000	-160.600281
14320.312500	-157.716232
14343.750000	-154.398529
14367.187500	-150.653412
14390.625000	-146.231186
14414.062500	-140.886093
14437.500000	-134.074249
14460.937500	-124.608513
14484.375000	-107.995941
14507.812500	-93.602219
14531.250000	-93.370712
14554.687500	-106.931190
14578.125000	-124.141457
14601.562500	-133.762985
14625.000000	-140.644623
14648.437500	-146.048706
14671.875000	-150.493332
14695.312500	-154.305450
14718.750000	-157.575500
14742.187500	-160.493866
14765.625000	-163.126617
14789.062500	-165.515076
14812.500000	-167.638596
14835.937500	-169.662491
14859.375000	-171.656952
14882.812500	-173.189758
14906.250000	-174.754303
14929.687500	-175.745590
14953.125000	-177.522812
14976.562500	-178.692444
15000.000000	-179.717896
15023.437500	-181.231232
15046.875000	-180.914413
15070.312500	-180.616318
15093.750000	-181.745682
15117.187500	-181.566940
15140.625000	-180.932663
15164.062500	-179.260010
15187.500000	-176.889038
15210.937500	-174.208862
15234.375000	-170.731979
15257.812500	-166.683578
15281.250000	-161.969025
15304.687500	-156.013351
15328.125000	-148.171463
15351.562500	-136.528534
15375.000000	-103.208969
15398.437500	-96.307991
15421.875000	-101.470917
15445.312500	-134.277832
15468.750000	-146.720169
15492.187500	-154.827744
15515.625000	-160.943680
15539.062500	-165.794144
15562.500000	-169.756882
15585.937500	-173.278503
15609.375000	-176.102036
15632.812500	-178.503708
15656.250000	-180.593704
15679.687500	-180.928497
15703.125000	-182.103363
15726.562500	-183.512817
15750.000000	-185.548782
15773.437500	-186.343307
15796.875000	-182.257111
15820.312500	-182.618408
15843.750000	-184.714371
15867.187500	-183.364380
15890.625000	-182.384018
15914.062500	-181.455566
15937.500000	-179.806274
15960.937500	-178.224274
15984.375000	-176.679001
16007.812500	-174.619904
16031.250000	-172.302826
16054.687500	-169.384598
16078.125000	-166.882446
16101.562500	-163.749176
16125.000000	-160.013519
16148.437500	-155.661835
16171.875000	-150.427261
16195.312500	-143.764267
16218.750000	-134.654419
16242.187500	-119.250549
16265.625000	-102.664955
16289.062500	-101.350578
16312.500000	-113.144958
16335.937500	-131.999817
16359.375000	-142.001938
16382.812500	-149.077087
16406.250000	-154.608994
16429.687500	-159.130310
16453.125000	-162.930252
16476.562500	-166.375870
16500.000000	-169.159210
16523.437500	-171.812866
16546.875000	-174.202103
16570.312500	-175.935318
16593.750000	-178.372269
16617.187500	-179.985062
16640.625000	-181.028458
16664.062500	-180.586655
16687.500000	-181.458206
16710.937500	-184.511612
16734.375000	-185.191315
16757.812500	-185.357162
16781.250000	-185.995529
16804.687500	-182.512497
16828.125000	-182.686050
16851.562500	-185.186493
16875.000000	-184.878265
16898.437500	-182.804413
16921.875000	-177.042847
16945.312500	-174.881561
16968.750000	-175.688828
16992.187500	-172.003708
17015.625000	-168.223984
17039.062500	-163.439362
17062.500000	-157.669373
17085.937500	-150.105026
17109.375000	-139.002045
17132.812500	-113.069496
17156.250000	-104.870422
17179.687500	-108.875679
17203.125000	-133.834061
17226.562500	-147.024612
17250.000000	-155.412964
17273.437500	-161.653290
17296.875000	-166.532990
17320.312500	-170.943405
17343.750000	-174.329071
17367.187500	-177.100662
17390.625000	-179.597580
17414.062500	-181.682281
17437.500000	-183.687332
17460.937500	-185.474609
17484.375000	-186.034912
17507.812500	-185.273270
17531.250000	-180.900101
17554.687500	-174.916824
17578.125000	-174.967224
17601.562500	-188.169708
17625.000000	-188.225601
17648.437500	-188.906769
17671.875000	-182.050598
17695.312500	-180.713745
17718.750000	-184.518860
17742.187500	-184.544434
17765.625000	-183.910400
17789.062500	-182.003998
17812.500000	-179.248367
17835.937500	-177.109497
17859.375000	-174.131561
17882.812500	-169.990860
17906.250000	-165.913467
17929.687500	-160.778854
17953.125000	-154.311996
17976.562500	-145.521271
18000.000000	-131.127121
18023.437500	-111.841408
18046.875000	-109.433800
18070.312500	-119.653145
18093.750000	-140.666351
18117.187500	-151.103226
18140.625000	-158.328384
18164.062500	-164.043839
18187.500000	-168.568680
18210.937500	-172.354767
18234.375000	-175.776855
18257.812500	-178.059586
18281.250000	-180.751816
18304.687500	-180.799454
18328.125000	-181.559219
18351.562500	-185.589020
18375.000000	-187.435562
18398.437500	-188.134354
18421.875000	-172.981842
18445.312500	-172.484009
18468.750000	-178.743225
18492.187500	-187.478622
18515.625000	-188.269897
18539.062500	-187.924988
18562.500000	-187.098663
18585.937500	-188.853149
18609.375000	-187.111221
18632.812500	-185.095764
18656.250000	-186.484467
18679.687500	-181.885117
18703.125000	-181.573593
18726.562500	-180.139328
18750.000000	-177.315811
18773.437500	-173.703537
18796.875000	-168.887894
18820.312500	-163.296066
18843.750000	-155.937866
18867.187500	-145.307755
18890.625000	-123.121147
18914.062500	-113.532181
18937.500000	-116.413826
18960.937500	-137.096863
18984.375000	-151.121719
19007.812500	-159.744232
19031.250000	-166.147995
19054.687500	-170.440063
19078.125000	-174.790466
19101.562500	-178.741684
19125.000000	-181.894501
19148.437500	-183.122055
19171.875000	-181.287338
19195.312500	-180.635452
19218.750000	-187.060211
19242.187500	-188.113632
19265.625000	-188.759125
19289.062500	-187.790771
19312.500000	-179.859634
19335.937500	-183.587997
19359.375000	-189.779037
19382.812500	-187.531708
19406.250000	-187.937958
19429.687500	-184.871307
19453.125000	-186.441086
19476.562500	-187.937042
19500.000000	-190.069489
19523.437500	-189.705139
19546.875000	-186.695587
19570.312500	-185.127213
19593.750000	-186.253036
19617.187500	-183.930450
19640.625000	-180.671829
19664.062500	-176.607544
19687.500000	-172.425064
19710.937500	-166.045166
19734.375000	-157.538254
19757.812500	-144.044785
19781.250000	-121.137932
19804.687500	-117.618019
19828.125000	-126.401237
19851.562500	-150.497681
19875.000000	-161.408478
19898.437500	-168.826538
19921.875000	-173.924652
19945.312500	-175.749924
19968.750000	-180.587830
19992.187500	-185.191666
20015.625000	-186.139359
20039.062500	-185.833069
20062.500000	-187.436111
20085.937500	-189.478180
20109.375000	-187.584122
20132.812500	-186.929291
20156.250000	-189.066055
20179.687500	-183.638855
20203.125000	-183.606354
20226.562500	-189.073303
20250.000000	-189.797745
20273.437500	-190.824524
20296.875000	-187.113739
20320.312500	-185.621994
20343.750000	-190.274307
20367.187500	-189.416504
20390.625000	-188.091873
20414.062500	-187.428436
20437.500000	-186.971405
20460.937500	-187.805466
20484.375000	-185.266235
20507.812500	-182.351822
20531.250000	-178.626205
20554.687500	-174.320023
20578.125000	-169.826462
20601.562500	-163.264420
20625.000000	-153.093002
20648.437500	-133.394363
20671.875000	-122.294312
20695.312500	-124.075867
20718.750000	-141.744995
20742.187500	-156.696304
20765.625000	-165.619980
20789.062500	-172.097321
20812.500000	-176.978577
20835.937500	-180.114319
20859.375000	-183.466171
20882.812500	-185.196045
20906.250000	-185.677948
20929.687500	-181.924149
20953.125000	-184.917892
20976.562500	-189.065140
21000.000000	-191.071732
21023.437500	-191.977432
21046.875000	-187.675018
21070.312500	-184.964828
21093.750000	-188.339355
21117.187500	-188.878403
21140.625000	-190.087631
21164.062500	-187.217941
21187.500000	-187.996063
21210.937500	-190.497513
21234.375000	-190.102463
21257.812500	-187.319794
21281.250000	-188.683289
21304.687500	-183.696121
21328.125000	-185.637436
21351.562500	-188.975021
21375.000000	-189.862289
21398.437500	-186.273178
21421.875000	-177.483246
21445.312500	-176.089844
21468.750000	-177.747345
21492.187500	-171.974564
21515.625000	-159.171555
21539.062500	-130.564804
21562.500000	-125.902649
21585.937500	-133.348221
21609.375000	-162.722885
21632.812500	-173.989609
21656.250000	-180.770096
21679.687500	-182.550873
21703.125000	-183.906967
21726.562500	-186.870316
21750.000000	-189.561432
21773.437500	-188.831406
21796.875000	-181.862640
21820.312500	-183.129791
21843.750000	-190.414932
21867.187500	-188.154800
21890.625000	-189.897141
21914.062500	-188.990280
21937.500000	-189.183090
21960.937500	-190.492447
21984.375000	-188.315460
22007.812500	-187.611816
22031.250000	-186.985657
22054.687500	-179.874146
22078.125000	-182.773315
22101.562500	-189.463577
22125.000000	-191.168060
22148.437500	-190.977158
22171.875000	-182.551331
22195.312500	-181.097443
22218.750000	-187.891464
22242.187500	-188.440384
22265.625000	-187.614532
22289.062500	-185.383163
22312.500000	-181.354233
22335.937500	-178.074814
22359.375000	-171.348633
22382.812500	-161.751205
22406.250000	-143.932739
22429.687500	-131.157166
22453.125000	-131.851730
22476.562500	-147.140549
22500.000000	-163.211426
22523.437500	-172.501495
22546.875000	-179.107635
22570.312500	-181.640442
22593.750000	-186.800125
22617.187500	-186.720001
22640.625000	-188.187790
22664.062500	-178.742218
22687.500000	-179.452362
22710.937500	-186.512039
22734.375000	-189.023483
22757.812500	-186.072357
22781.250000	-188.133652
22804.687500	-183.500916
22828.125000	-185.603989
22851.562500	-188.070648
22875.000000	-191.521515
22898.437500	-191.685913
22921.875000	-180.154251
22945.312500	-179.015518
22968.750000	-185.826004
22992.187500	-187.118546
23015.625000	-188.686340
23039.062500	-188.927292
23062.500000	-188.826294
23085.937500	-191.692032
23109.375000	-187.586426
23132.812500	-187.731781
23156.250000	-190.005356
23179.687500	-184.305710
23203.125000	-184.488937
23226.562500	-188.985733
23250.000000	-190.815002
23273.437500	-185.484100
23296.875000	-140.130936
23320.312500	-134.281891
23343.750000	-140.480240
23367.187500	-185.090286
23390.625000	-188.873032
23414.062500	-188.052460
23437.500000	-189.325531
23460.937500	-191.817307
23484.375000	-188.492218
23507.812500	-186.981857
23531.250000	-175.251556
23554.687500	-168.689560
23578.125000	-170.257645
23601.562500	-188.182419
23625.000000	-189.423950
23648.437500	-190.834946
23671.875000	-183.092697
23695.312500	-181.317947
23718.750000	-188.553268
23742.187500	-188.766739
23765.625000	-190.300400
23789.062500	-188.687256
23812.500000	-185.469376
23835.937500	-187.691620
23859.375000	-189.903381
23882.812500	-186.484085
23906.250000	-188.502945
23929.687500	-183.374252
23953.125000	-184.686264
23976.562500	-190.004471
24000.000000	-191.152130
24023.437500	-191.826340
24046.875000	-187.221924
24070.312500	-184.964264
24093.750000	-186.048172
24117.187500	-180.071869
24140.625000	-171.089508
24164.062500	-154.782364
24187.500000	-140.117432
24210.937500	-139.729996
24234.375000	-153.024414
24257.812500	-170.258377
24281.250000	-179.734146
24304.687500	-182.261597
24328.125000	-184.619827
24351.562500	-189.279800
24375.000000	-190.622101
24398.437500	-187.440399
24421.875000	-167.316589
24445.312500	-165.039429
24468.750000	-172.309845
24492.187500	-188.583755
24515.625000	-187.520355
24539.062500	-187.025925
24562.500000	-189.752701
24585.937500	-189.602539
24609.375000	-187.869827
24632.812500	-187.155426
24656.250000	-189.563553
24679.687500	-182.737503
24703.125000	-185.586685
24726.562500	-189.384857
24750.000000	-189.969116
24773.437500	-191.256012
24796.875000	-186.298203
24820.312500	-185.247009
24843.750000	-188.519745
24867.187500	-189.146530
24890.625000	-189.600769
24914.062500	-188.315567
24937.500000	-189.981613
24960.937500	-191.064957
24984.375000	-189.474365
25007.812500	-186.389603
25031.250000	-180.506195
25054.687500	-149.858948
25078.125000	-142.756393
25101.562500	-147.751129
25125.000000	-178.621338
25148.437500	-188.317093
25171.875000	-181.934006
25195.312500	-181.105255
25218.750000	-187.747925
25242.187500	-186.632675
25265.625000	-190.091537
25289.062500	-182.591385
25312.500000	-174.969040
25335.937500	-177.887009
25359.375000	-188.705154
25382.812500	-187.060486
25406.250000	-187.942825
25429.687500	-184.337311
25453.125000	-185.539490
25476.562500	-189.436829
25500.000000	-191.606171
25523.437500	-192.262634
25546.875000	-187.390640
25570.312500	-185.560699
25593.750000	-190.262589
25617.187500	-189.465424
25640.625000	-190.136520
25664.062500	-187.097961
25687.500000	-186.704239
25710.937500	-189.081619
25734.375000	-188.431335
25757.812500	-186.803131
25781.250000	-188.189499
25804.687500	-182.967316
25828.125000	-184.462326
25851.562500	-189.315155
25875.000000	-185.991364
25898.437500	-180.982346
25921.875000	-165.997559
25945.312500	-149.159576
25968.750000	-147.701523
25992.187500	-159.261520
26015.625000	-178.194855
26039.062500	-185.286209
26062.500000	-188.826111
26085.937500	-190.485153
26109.375000	-188.780548
26132.812500	-186.826218
26156.250000	-189.455902
26179.687500	-181.861465
26203.125000	-177.312363
26226.562500	-186.454086
26250.000000	-190.281174
26273.437500	-191.224289
26296.875000	-187.134079
26320.312500	-185.155609
26343.750000	-190.098740
26367.187500	-188.490204
26390.625000	-189.314545
26414.062500	-188.877197
26437.500000	-188.924622
26460.937500	-191.217270
26484.375000	-188.104050
26507.812500	-186.533508
26531.250000	-184.008087
26554.687500	-177.119888
26578.125000	-179.514862
26601.562500	-189.243378
26625.000000	-190.061584
26648.437500	-192.280289
26671.875000	-182.709122
26695.312500	-181.949860
26718.750000	-187.509308
26742.187500	-189.638062
26765.625000	-189.007965
26789.062500	-184.254181
26812.500000	-159.699814
26835.937500	-151.328217
26859.375000	-155.181427
26882.812500	-178.188446
26906.250000	-187.747986
26929.687500	-184.109604
26953.125000	-185.907166
26976.562500	-188.963333
27000.000000	-188.390991
27023.437500	-191.095673
27046.875000	-186.813660
27070.312500	-182.148788
27093.750000	-184.800583
27117.187500	-189.285995
27140.625000	-190.217560
27164.062500	-188.274582
27187.500000	-189.346832
27210.937500	-190.854553
27234.375000	-188.451477
27257.812500	-186.088623
27281.250000	-189.401672
27304.687500	-183.467728
27328.125000	-184.561310
27351.562500	-190.116150
27375.000000	-189.602173
27398.437500	-188.686646
27421.875000	-176.503067
27445.312500	-175.104401
27468.750000	-182.175751
27492.187500	-189.621231
27515.625000	-189.897644
27539.062500	-188.657974
27562.500000	-188.626785
27585.937500	-191.295532
27609.375000	-189.389557
27632.812500	-187.258224
27656.250000	-187.776184
27679.687500	-176.904617
27703.125000	-158.267700
27726.562500	-155.690506
27750.000000	-165.682098
27773.437500	-185.276138
27796.875000	-184.298035
27820.312500	-184.868942
27843.750000	-191.070709
27867.187500	-187.193542
27890.625000	-189.375916
27914.062500	-188.909225
27937.500000	-188.975250
27960.937500	-188.224716
27984.375000	-189.556076
28007.812500	-187.479492
28031.250000	-187.097275
28054.687500	-180.403000
28078.125000	-181.898972
28101.562500	-189.470520
28125.000000	-189.597839
28148.437500	-190.708511
28171.875000	-181.976852
28195.312500	-181.903137
28218.750000	-186.701385
28242.187500	-189.262497
28265.625000	-189.988174
28289.062500	-188.335220
28312.500000	-183.378708
28335.937500	-186.432434
28359.375000	-187.915390
28382.812500	-186.632324
28406.250000	-189.673416
28429.687500	-183.588684
28453.125000	-185.860168
28476.562500	-189.056015
28500.000000	-191.014679
28523.437500	-192.307907
28546.875000	-186.126816
28570.312500	-169.592621
28593.750000	-159.812943
28617.187500	-162.572433
28640.625000	-181.216858
28664.062500	-184.033249
28687.500000	-185.396225
28710.937500	-190.441055
28734.375000	-188.798004
28757.812500	-185.464020
28781.250000	-188.316650
28804.687500	-183.239746
28828.125000	-184.586945
28851.562500	-188.112183
28875.000000	-190.311554
28898.437500	-190.160583
28921.875000	-180.168213
28945.312500	-178.271194
28968.750000	-185.233902
28992.187500	-188.851303
29015.625000	-190.713089
29039.062500	-188.379852
29062.500000	-189.622498
29085.937500	-190.357498
29109.375000	-188.007462
29132.812500	-187.111694
29156.250000	-188.098679
29179.687500	-184.853683
29203.125000	-184.132584
29226.562500	-188.826248
29250.000000	-190.335587
29273.437500	-192.609772
29296.875000	-187.394058
29320.312500	-185.187119
29343.750000	-190.216354
29367.187500	-189.814865
29390.625000	-189.919815
29414.062500	-188.379379
29437.500000	-186.820038
29460.937500	-167.749161
29484.375000	-164.055984
29507.812500	-172.481796
29531.250000	-181.497787
29554.687500	-174.100250
29578.125000	-175.594513
29601.562500	-189.871796
29625.000000	-191.287643
29648.437500	-191.496613
29671.875000	-183.154449
29695.312500	-181.293365
29718.750000	-187.378189
29742.187500	-188.497177
29765.625000	-190.264572
29789.062500	-189.460999
29812.500000	-186.792099
29835.937500	-188.628616
29859.375000	-189.570419
29882.812500	-186.403015
29906.250000	-188.747406
29929.687500	-184.469894
29953.125000	-185.380676
29976.562500	-188.650055
30000.000000	-191.505890
30023.437500	-191.725281
30046.875000	-187.771393
30070.312500	-185.629486
30093.750000	-188.574371
30117.187500	-188.073288
30140.625000	-189.034332
30164.062500	-188.270615
30187.500000	-187.495972
30210.937500	-190.250504
30234.375000	-188.971893
30257.812500	-188.443848
30281.250000	-188.481461
30304.687500	-183.605850
30328.125000	-178.705093
30351.562500	-168.860580
30375.000000	-170.399719
30398.437500	-186.433380
30421.875000	-173.707138
30445.312500	-172.249069
30468.750000	-179.013336
30492.187500	-189.100342
30515.625000	-189.110138
30539.062500	-188.201355
30562.500000	-189.279755
30585.937500	-188.555908
30609.375000	-187.232208
30632.812500	-186.920746
30656.250000	-189.209915
30679.687500	-183.426453
30703.125000	-184.288483
30726.562500	-189.673203
30750.000000	-189.899490
30773.437500	-190.815689
30796.875000	-185.995483
30820.312500	-185.232269
30843.750000	-191.264343
30867.187500	-189.322327
30890.625000	-189.753036
30914.062500	-188.713898
30937.500000	-189.829468
30960.937500	-191.053696
30984.375000	-188.641922
31007.812500	-187.612442
31031.250000	-186.104065
31054.687500	-179.959488
31078.125000	-180.880020
31101.562500	-189.888062
31125.000000	-192.298676
31148.437500	-189.814163
31171.875000	-183.698395
31195.312500	-182.107071
31218.750000	-175.931625
31242.187500	-171.275742
31265.625000	-178.393234
31289.062500	-187.916077
31312.500000	-181.080490
31335.937500	-184.080368
31359.375000	-188.820694
31382.812500	-186.703903
31406.250000	-188.963684
31429.687500	-184.565750
31453.125000	-185.092697
31476.562500	-189.466553
31500.000000	-190.287186
31523.437500	-193.094437
31546.875000	-187.820602
31570.312500	-184.738174
31593.750000	-190.037918
31617.187500	-189.102982
31640.625000	-189.112961
31664.062500	-187.303513
31687.500000	-186.554459
31710.937500	-190.761826
31734.375000	-189.101791
31757.812500	-187.899902
31781.250000	-188.311172
31804.687500	-183.169189
31828.125000	-185.173157
31851.562500	-189.687653
31875.000000	-189.866119
31898.437500	-191.426895
31921.875000	-180.497879
31945.312500	-177.808304
31968.750000	-185.202362
31992.187500	-189.547592
32015.625000	-189.337830
32039.062500	-186.807297
32062.500000	-188.325592
32085.937500	-187.471725
32109.375000	-176.880432
32132.812500	-177.346313
32156.250000	-187.901123
32179.687500	-183.667923
32203.125000	-181.551651
32226.562500	-187.753891
32250.000000	-192.134567
32273.437500	-192.238785
32296.875000	-186.882172
32320.312500	-185.096481
32343.750000	-189.243149
32367.187500	-187.912445
32390.625000	-189.213745
32414.062500	-187.583679
32437.500000	-188.384384
32460.937500	-190.611816
32484.375000	-188.439865
32507.812500	-187.585266
32531.250000	-185.159714
32554.687500	-176.136139
32578.125000	-178.586731
32601.562500	-188.483292
32625.000000	-190.763519
32648.437500	-191.900040
32671.875000	-183.260513
32695.312500	-180.152542
32718.750000	-187.973389
32742.187500	-188.325439
32765.625000	-188.550690
32789.062500	-188.929077
32812.500000	-185.662903
32835.937500	-189.000992
32859.375000	-189.429031
32882.812500	-187.240219
32906.250000	-189.303162
32929.687500	-183.477798
32953.125000	-185.113388
32976.562500	-185.613220
33000.000000	-181.142776
33023.437500	-186.689621
33046.875000	-187.141800
33070.312500	-184.127625
33093.750000	-186.399323
33117.187500	-189.465530
33140.625000	-189.292252
33164.062500	-188.443878
33187.500000	-187.680649
33210.937500	-191.950882
33234.375000	-187.113571
33257.812500	-186.723785
33281.250000	-188.016846
33304.687500	-182.586884
33328.125000	-184.714279
33351.562500	-189.584534
33375.000000	-189.639206
33398.437500	-190.364822
33421.875000	-176.580643
33445.312500	-175.198929
33468.750000	-182.561935
33492.187500	-187.913483
33515.625000	-189.812881
33539.062500	-189.332581
33562.500000	-188.042908
33585.937500	-190.854385
33609.375000	-189.279968
33632.812500	-187.608719
33656.250000	-189.774963
33679.687500	-185.101654
33703.125000	-185.956024
33726.562500	-189.077972
33750.000000	-191.388168
33773.437500	-190.211578
33796.875000	-183.904816
33820.312500	-183.408234
33843.750000	-190.380966
33867.187500	-185.763992
33890.625000	-185.007355
33914.062500	-188.860168
33937.500000	-188.482178
33960.937500	-189.993942
33984.375000	-189.087692
34007.812500	-186.394730
34031.250000	-186.464554
34054.687500	-179.878754
34078.125000	-182.221725
34101.562500	-190.242722
34125.000000	-190.943939
34148.437500	-192.181793
34171.875000	-182.325577
34195.312500	-180.904495
34218.750000	-186.783447
34242.187500	-190.024307
34265.625000	-190.545120
34289.062500	-188.154388
34312.500000	-183.454147
34335.937500	-186.142929
34359.375000	-188.744431
34382.812500	-186.943573
34406.250000	-189.915298
34429.687500	-184.769501
34453.125000	-186.137024
34476.562500	-189.348740
34500.000000	-191.340668
34523.437500	-189.563873
34546.875000	-186.995605
34570.312500	-186.644073
34593.750000	-189.086533
34617.187500	-187.865417
34640.625000	-189.822006
34664.062500	-182.097153
34687.500000	-181.215500
34710.937500	-188.540054
34734.375000	-187.508881
34757.812500	-182.906616
34781.250000	-187.056641
34804.687500	-184.095749
34828.125000	-183.690430
34851.562500	-189.926727
34875.000000	-192.060013
34898.437500	-191.824738
34921.875000	-180.116287
34945.312500	-178.842987
34968.750000	-185.900406
34992.187500	-189.933578
35015.625000	-190.126495
35039.062500	-188.958862
35062.500000	-189.452881
35085.937500	-190.167557
35109.375000	-189.306396
35132.812500	-186.672806
35156.250000	-189.524094
35179.687500	-184.500549
35203.125000	-185.080109
35226.562500	-189.116806
35250.000000	-190.738220
35273.437500	-191.527481
35296.875000	-186.124222
35320.312500	-185.227997
35343.750000	-191.073288
35367.187500	-188.709137
35390.625000	-190.750595
35414.062500	-189.599182
35437.500000	-189.379181
35460.937500	-191.187454
35484.375000	-188.567413
35507.812500	-187.111450
35531.250000	-178.799576
35554.687500	-171.464569
35578.125000	-172.082520
35601.562500	-188.812317
35625.000000	-190.180054
35648.437500	-192.322571
35671.875000	-182.993942
35695.312500	-180.656586
35718.750000	-185.923782
35742.187500	-187.143753
35765.625000	-190.884247
35789.062500	-188.333984
35812.500000	-186.756790
35835.937500	-187.847000
35859.375000	-188.588043
35882.812500	-188.173050
35906.250000	-189.765808
35929.687500	-184.295670
35953.125000	-185.347260
35976.562500	-191.165207
36000.000000	-190.697800
36023.437500	-191.763443
36046.875000	-187.122620
36070.312500	-185.878723
36093.750000	-189.587189
36117.187500	-189.336426
36140.625000	-188.932617
36164.062500	-188.372269
36187.500000	-188.688293
36210.937500	-190.219757
36234.375000	-188.953171
36257.812500	-186.637329
36281.250000	-188.986191
36304.687500	-183.109253
36328.125000	-184.538208
36351.562500	-187.872818
36375.000000	-189.225616
36398.437500	-189.637421
36421.875000	-169.603851
36445.312500	-169.932129
36468.750000	-177.134171
36492.187500	-188.993134
36515.625000	-189.333267
36539.062500	-190.337601
36562.500000	-189.442230
36585.937500	-190.978455
36609.375000	-189.120850
36632.812500	-187.206223
36656.250000	-190.431961
36679.687500	-184.667175
36703.125000	-186.397278
36726.562500	-189.663773
36750.000000	-191.028671
36773.437500	-191.418655
36796.875000	-186.751526
36820.312500	-186.137680
36843.750000	-191.075851
36867.187500	-189.255890
36890.625000	-190.287506
36914.062500	-188.657425
36937.500000	-189.540131
36960.937500	-190.098236
36984.375000	-189.696915
37007.812500	-187.099579
37031.250000	-187.703430
37054.687500	-180.442886
37078.125000	-182.047318
37101.562500	-189.533051
37125.000000	-191.073486
37148.437500	-191.748917
37171.875000	-184.039368
37195.312500	-181.702545
37218.750000	-188.518860
37242.187500	-188.779968
37265.625000	-189.791138
37289.062500	-186.917297
37312.500000	-178.357666
37335.937500	-181.191986
37359.375000	-189.313400
37382.812500	-188.362122
37406.250000	-188.968079
37429.687500	-185.331100
37453.125000	-186.649734
37476.562500	-190.226334
37500.000000	-191.008240
37523.437500	-192.219254
37546.875000	-187.250031
37570.312500	-185.348663
37593.750000	-190.262573
37617.187500	-188.838577
37640.625000	-187.426041
37664.062500	-186.562790
37687.500000	-186.488754
37710.937500	-191.420074
37734.375000	-190.470154
37757.812500	-186.959702
37781.250000	-189.564499
37804.687500	-183.379593
37828.125000	-184.899200
37851.562500	-190.217865
37875.000000	-189.168686
37898.437500	-189.805740
37921.875000	-179.751480
37945.312500	-179.460342
37968.750000	-184.936325
37992.187500	-189.302917
38015.625000	-189.088425
38039.062500	-189.280167
38062.500000	-188.817673
38085.937500	-189.950989
38109.375000	-190.556595
38132.812500	-187.417313
38156.250000	-190.732300
38179.687500	-182.919235
38203.125000	-181.637909
38226.562500	-188.992584
38250.000000	-191.598648
38273.437500	-191.726288
38296.875000	-186.862915
38320.312500	-185.798233
38343.750000	-190.858978
38367.187500	-189.651779
38390.625000	-190.035553
38414.062500	-188.038132
38437.500000	-188.028976
38460.937500	-190.799500
38484.375000	-188.375473
38507.812500	-187.243607
38531.250000	-184.181458
38554.687500	-176.067551
38578.125000	-178.038971
38601.562500	-190.340622
38625.000000	-191.865021
38648.437500	-191.557907
38671.875000	-183.532516
38695.312500	-181.290009
38718.750000	-187.503220
38742.187500	-186.900330
38765.625000	-187.670303
38789.062500	-188.775055
38812.500000	-186.223679
38835.937500	-186.683289
38859.375000	-187.192764
38882.812500	-186.788132
38906.250000	-189.666885
38929.687500	-184.074997
38953.125000	-186.234512
38976.562500	-190.023407
39000.000000	-191.072937
39023.437500	-192.112091
39046.875000	-186.826569
39070.312500	-183.597610
39093.750000	-188.093597
39117.187500	-188.757217
39140.625000	-188.411057
39164.062500	-184.922592
39187.500000	-187.631989
39210.937500	-189.098740
39234.375000	-189.519531
39257.812500	-187.870651
39281.250000	-188.686707
39304.687500	-181.899765
39328.125000	-183.983307
39351.562500	-190.835007
39375.000000	-190.504669
39398.437500	-190.500031
39421.875000	-176.863251
39445.312500	-175.875931
39468.750000	-183.151688
39492.187500	-187.259613
39515.625000	-189.468765
39539.062500	-188.410629
39562.500000	-187.683945
39585.937500	-190.182922
39609.375000	-188.961456
39632.812500	-187.031509
39656.250000	-189.575638
39679.687500	-185.294189
39703.125000	-187.392975
39726.562500	-189.416901
39750.000000	-191.061508
39773.437500	-189.131729
39796.875000	-182.972214
39820.312500	-184.319717
39843.750000	-190.555771
39867.187500	-189.226349
39890.625000	-189.842712
39914.062500	-188.278732
39937.500000	-189.924133
39960.937500	-187.705017
39984.375000	-188.603439
40007.812500	-187.854294
40031.250000	-186.520615
40054.687500	-180.101486
40078.125000	-180.401001
40101.562500	-189.405853
40125.000000	-190.428665
40148.437500	-191.740280
40171.875000	-183.064941
40195.312500	-180.895523
40218.750000	-187.201309
40242.187500	-187.870285
40265.625000	-188.498444
40289.062500	-186.531815
40312.500000	-183.936844
40335.937500	-186.707733
40359.375000	-188.982162
40382.812500	-187.494110
40406.250000	-190.322891
40429.687500	-185.223785
40453.125000	-186.354965
40476.562500	-190.018600
40500.000000	-191.399094
40523.437500	-190.488708
40546.875000	-187.168732
40570.312500	-184.845352
40593.750000	-190.125092
40617.187500	-188.485504
40640.625000	-190.315506
40664.062500	-185.004822
40687.500000	-183.523010
40710.937500	-188.066360
40734.375000	-188.904526
40757.812500	-186.108627
40781.250000	-188.851807
40804.687500	-182.461227
40828.125000	-184.156845
40851.562500	-190.175079
40875.000000	-191.357559
40898.437500	-192.177444
40921.875000	-179.562790
40945.312500	-179.031799
40968.750000	-186.140701
40992.187500	-187.647751
41015.625000	-189.695206
41039.062500	-189.154831
41062.500000	-189.209229
41085.937500	-187.742584
41109.375000	-187.285141
41132.812500	-187.482162
41156.250000	-187.034973
41179.687500	-184.492630
41203.125000	-185.785172
41226.562500	-189.730881
41250.000000	-192.186569
41273.437500	-192.255569
41296.875000	-187.226715
41320.312500	-185.645401
41343.750000	-191.122620
41367.187500	-188.288300
41390.625000	-189.107925
41414.062500	-189.236938
41437.500000	-188.920380
41460.937500	-191.088959
41484.375000	-188.743591
41507.812500	-187.722305
41531.250000	-180.442520
41554.687500	-173.631729
41578.125000	-174.791519
41601.562500	-189.358917
41625.000000	-190.512436
41648.437500	-190.156555
41671.875000	-183.190384
41695.312500	-180.729797
41718.750000	-186.005615
41742.187500	-188.037521
41765.625000	-190.487015
41789.062500	-190.514313
41812.500000	-187.925476
41835.937500	-188.014542
41859.375000	-187.604187
41882.812500	-185.545776
41906.250000	-188.153931
41929.687500	-184.631561
41953.125000	-185.871262
41976.562500	-188.520645
42000.000000	-190.346039
42023.437500	-188.346405
42046.875000	-185.094116
42070.312500	-185.542633
42093.750000	-190.494629
42117.187500	-187.540680
42140.625000	-189.832077
42164.062500	-188.888626
42187.500000	-186.959518
42210.937500	-190.474167
42234.375000	-189.563934
42257.812500	-187.371292
42281.250000	-187.571548
42304.687500	-183.499771
42328.125000	-184.210114
42351.562500	-190.882294
42375.000000	-191.470993
42398.437500	-189.120392
42421.875000	-173.916290
42445.312500	-172.342682
42468.750000	-179.663712
42492.187500	-189.002167
42515.625000	-189.698044
42539.062500	-190.136703
42562.500000	-188.555557
42585.937500	-188.974991
42609.375000	-188.281189
42632.812500	-186.611374
42656.250000	-190.013611
42679.687500	-184.369492
42703.125000	-186.451126
42726.562500	-189.440735
42750.000000	-190.095322
42773.437500	-189.312103
42796.875000	-185.786011
42820.312500	-184.801758
42843.750000	-189.559036
42867.187500	-188.501801
42890.625000	-189.121964
42914.062500	-189.268509
42937.500000	-189.607559
42960.937500	-189.620850
42984.375000	-189.747726
43007.812500	-187.702988
43031.250000	-185.614868
43054.687500	-179.123276
43078.125000	-180.355713
43101.562500	-190.014603
43125.000000	-192.292328
43148.437500	-188.026230
43171.875000	-182.180328
43195.312500	-181.931076
43218.750000	-188.100754
43242.187500	-188.638443
43265.625000	-189.883621
43289.062500	-188.211884
43312.500000	-182.024246
43335.937500	-184.200699
43359.375000	-188.900909
43382.812500	-187.302765
43406.250000	-190.073547
43429.687500	-184.554596
43453.125000	-186.054962
43476.562500	-187.627533
43500.000000	-189.917221
43523.437500	-190.389069
43546.875000	-186.765579
43570.312500	-184.639664
43593.750000	-190.810806
43617.187500	-187.052246
43640.625000	-188.787415
43664.062500	-186.090515
43687.500000	-185.814438
43710.937500	-189.401703
43734.375000	-189.259628
43757.812500	-187.380890
43781.250000	-188.664886
43804.687500	-182.829071
43828.125000	-184.469070
43851.562500	-189.405777
43875.000000	-189.054535
43898.437500	-189.634552
43921.875000	-181.338028
43945.312500	-179.463287
43968.750000	-184.958008
43992.187500	-187.876709
44015.625000	-187.592972
44039.062500	-185.279984
44062.500000	-186.098938
44085.937500	-189.923462
44109.375000	-188.635025
44132.812500	-188.090363
44156.250000	-190.631897
44179.687500	-184.264282
44203.125000	-183.863083
44226.562500	-190.290268
44250.000000	-191.049759
44273.437500	-190.399246
44296.875000	-186.141724
44320.312500	-185.556046
44343.750000	-190.527008
44367.187500	-187.454269
44390.625000	-190.304688
44414.062500	-189.528137
44437.500000	-189.210083
44460.937500	-189.768600
44484.375000	-189.370560
44507.812500	-187.592926
44531.250000	-183.936935
44554.687500	-176.323074
44578.125000	-178.907990
44601.562500	-188.897400
44625.000000	-191.501648
44648.437500	-191.355453
44671.875000	-184.457443
44695.312500	-182.127853
44718.750000	-188.841660
44742.187500	-187.615906
44765.625000	-188.619156
44789.062500	-190.443344
44812.500000	-187.654312
44835.937500	-187.526505
44859.375000	-189.811371
44882.812500	-187.522827
44906.250000	-182.997772
44929.687500	-180.939438
44953.125000	-185.477493
44976.562500	-190.607437
45000.000000	-191.652756
45023.437500	-192.201782
45046.875000	-186.945068
45070.312500	-184.555252
45093.750000	-188.582520
45117.187500	-188.004974
45140.625000	-188.459290
45164.062500	-188.218903
45187.500000	-187.913269
45210.937500	-189.178146
45234.375000	-187.670135
45257.812500	-186.769897
45281.250000	-188.309433
45304.687500	-182.374634
45328.125000	-184.807571
45351.562500	-189.936539
45375.000000	-190.452652
45398.437500	-188.565613
45421.875000	-177.805740
45445.312500	-175.948196
45468.750000	-183.270172
45492.187500	-187.864563
45515.625000	-189.558701
45539.062500	-189.652496
45562.500000	-189.040894
45585.937500	-190.940201
45609.375000	-188.984329
45632.812500	-186.547607
45656.250000	-189.927902
45679.687500	-184.760315
45703.125000	-185.547287
45726.562500	-189.580566
45750.000000	-190.361176
45773.437500	-183.695969
45796.875000	-175.872192
45820.312500	-182.052170
45843.750000	-191.083618
45867.187500	-189.255890
45890.625000	-189.782379
45914.062500	-189.554489
45937.500000	-189.845322
45960.937500	-189.363388
45984.375000	-189.301682
46007.812500	-188.673813
46031.250000	-185.616791
46054.687500	-179.088577
46078.125000	-180.830261
46101.562500	-191.089371
46125.000000	-189.914993
46148.437500	-189.801880
46171.875000	-184.891541
46195.312500	-182.310867
46218.750000	-188.065384
46242.187500	-188.245346
46265.625000	-188.970444
46289.062500	-188.775681
46312.500000	-184.242218
46335.937500	-186.609299
46359.375000	-188.984329
46382.812500	-187.863083
46406.250000	-190.993561
46429.687500	-184.985703
46453.125000	-186.432861
46476.562500	-190.984283
46500.000000	-191.288086
46523.437500	-189.871979
46546.875000	-185.997559
46570.312500	-185.424591
46593.750000	-191.092972
46617.187500	-187.849762
46640.625000	-187.211777
46664.062500	-173.933044
46687.500000	-171.652725
46710.937500	-181.974625
46734.375000	-189.909317
46757.812500	-187.185760
46781.250000	-188.375549
46804.687500	-183.522964
46828.125000	-183.495529
46851.562500	-189.836655
46875.000000	-191.307434
46898.437500	-189.989227
46921.875000	-180.432236
46945.312500	-179.529556
46968.750000	-186.801270
46992.187500	-188.098343
47015.625000	-189.305435
47039.062500	-188.778580
47062.500000	-188.220612
47085.937500	-189.553009
47109.375000	-189.271057
47132.812500	-188.111954
47156.250000	-189.052856
47179.687500	-184.942398
47203.125000	-185.530594
47226.562500	-189.980637
47250.000000	-190.830460
47273.437500	-190.573410
47296.875000	-185.112350
47320.312500	-184.246887
47343.750000	-189.793228
47367.187500	-187.892960
47390.625000	-190.497925
47414.062500	-189.513931
47437.500000	-189.709488
47460.937500	-190.073471
47484.375000	-189.637726
47507.812500	-186.859085
47531.250000	-170.121292
47554.687500	-160.379440
47578.125000	-164.522583
47601.562500	-184.204941
47625.000000	-190.651199
47648.437500	-190.075317
47671.875000	-182.845200
47695.312500	-182.040878
47718.750000	-188.194946
47742.187500	-187.850800
47765.625000	-189.842789
47789.062500	-190.083496
47812.500000	-187.220154
47835.937500	-188.963440
47859.375000	-188.460327
47882.812500	-187.227295
47906.250000	-189.318726
47929.687500	-184.558426
47953.125000	-186.286896
47976.562500	-189.898682
